WL;Reflectance
315.92;0.086
317.09;0.083
318.28;0.081
319.47;0.085
320.67;0.083
321.87;0.084
323.08;0.083
324.29;0.081
325.51;0.087
326.73;0.088
327.96;0.084
329.2;0.082
330.44;0.089
331.69;0.076
332.94;0.084
334.2;0.072
335.46;0.082
336.73;0.082
338;0.077
339.28;0.083
340.56;0.082
341.85;0.081
343.14;0.082
344.43;0.072
345.73;0.071
347.04;0.073
348.35;0.074
349.66;0.065
350.98;0.061
352.3;0.066
353.63;0.062
354.96;0.056
356.29;0.055
357.63;0.054
358.98;0.052
360.32;0.051
361.67;0.047
363.03;0.048
364.38;0.047
365.74;0.047
367.11;0.045
368.48;0.042
369.85;0.042
371.22;0.042
372.6;0.043
373.98;0.043
375.37;0.042
376.76;0.042
378.15;0.042
379.54;0.041
380.94;0.041
382.34;0.041
383.74;0.040
385.15;0.039
386.56;0.039
387.97;0.038
389.39;0.037
390.8;0.035
392.22;0.033
393.65;0.031
395.07;0.031
396.5;0.029
397.93;0.028
399.36;0.027
400.8;0.027
402.23;0.026
403.67;0.025
405.12;0.025
406.56;0.025
408.01;0.025
409.46;0.024
410.91;0.024
412.36;0.024
413.81;0.023
415.27;0.024
416.73;0.023
418.19;0.023
419.65;0.023
421.12;0.023
422.58;0.022
424.05;0.023
425.52;0.023
426.99;0.022
428.46;0.022
429.94;0.022
431.41;0.022
432.89;0.022
434.37;0.021
435.85;0.022
437.33;0.022
438.82;0.022
440.3;0.022
441.79;0.022
443.28;0.022
444.77;0.022
446.26;0.021
447.75;0.021
449.24;0.021
450.74;0.021
452.23;0.021
453.73;0.021
455.23;0.021
456.73;0.021
458.23;0.021
459.73;0.021
461.23;0.021
462.73;0.021
464.24;0.021
465.74;0.021
467.25;0.021
468.76;0.021
470.26;0.021
471.77;0.021
473.28;0.021
474.79;0.021
476.31;0.021
477.82;0.021
479.33;0.021
480.84;0.021
482.36;0.021
483.87;0.021
485.39;0.021
486.91;0.021
488.42;0.021
489.94;0.022
491.46;0.022
492.98;0.022
494.5;0.022
496.02;0.022
497.54;0.023
499.06;0.023
500.58;0.024
502.11;0.024
503.63;0.025
505.15;0.025
506.68;0.026
508.2;0.027
509.73;0.027
511.25;0.028
512.78;0.029
514.3;0.030
515.83;0.031
517.36;0.032
518.88;0.033
520.41;0.034
521.94;0.035
523.47;0.036
525;0.036
526.53;0.037
528.06;0.037
529.58;0.038
531.11;0.038
532.64;0.039
534.18;0.039
535.71;0.039
537.24;0.040
538.77;0.040
540.3;0.040
541.83;0.040
543.36;0.040
544.89;0.040
546.43;0.040
547.96;0.040
549.49;0.040
551.02;0.040
552.56;0.040
554.09;0.039
555.62;0.039
557.15;0.039
558.69;0.039
560.22;0.038
561.75;0.038
563.29;0.037
564.82;0.037
566.36;0.037
567.89;0.036
569.42;0.035
570.96;0.035
572.49;0.034
574.03;0.034
575.56;0.033
577.09;0.033
578.63;0.032
580.16;0.032
581.7;0.032
583.23;0.031
584.77;0.031
586.3;0.031
587.84;0.030
589.37;0.030
590.91;0.030
592.44;0.030
593.98;0.029
595.51;0.029
597.05;0.029
598.58;0.029
600.11;0.029
601.65;0.029
603.18;0.028
604.72;0.028
606.25;0.028
607.79;0.028
609.32;0.028
610.86;0.028
612.39;0.028
613.93;0.027
615.46;0.027
617;0.027
618.53;0.027
620.07;0.027
621.6;0.027
623.14;0.026
624.67;0.026
626.21;0.026
627.74;0.026
629.28;0.026
630.81;0.025
632.35;0.025
633.88;0.025
635.42;0.024
636.95;0.024
638.49;0.024
640.02;0.024
641.56;0.023
643.09;0.023
644.63;0.023
646.16;0.022
647.7;0.022
649.24;0.022
650.77;0.022
652.31;0.022
653.84;0.022
655.38;0.022
656.91;0.022
658.45;0.022
659.98;0.022
661.52;0.022
663.05;0.022
664.59;0.022
666.12;0.022
667.66;0.023
669.19;0.023
670.73;0.023
672.26;0.024
673.8;0.024
675.34;0.025
676.87;0.025
678.41;0.026
679.94;0.027
681.48;0.028
683.01;0.029
684.55;0.030
686.09;0.031
687.62;0.032
689.16;0.033
690.69;0.035
692.23;0.037
693.77;0.040
695.3;0.042
696.84;0.045
698.38;0.049
699.91;0.053
701.45;0.057
702.99;0.061
704.52;0.066
706.06;0.071
707.6;0.076
709.14;0.081
710.67;0.086
712.21;0.091
713.75;0.096
715.29;0.101
716.82;0.106
718.36;0.111
719.9;0.116
721.44;0.120
722.98;0.125
724.51;0.129
726.05;0.133
727.59;0.136
729.13;0.139
730.67;0.142
732.21;0.145
733.75;0.147
735.29;0.150
736.83;0.152
738.37;0.153
739.91;0.155
741.45;0.156
742.99;0.158
744.53;0.159
746.07;0.160
747.61;0.160
749.15;0.161
750.69;0.162
752.24;0.162
753.78;0.162
755.32;0.163
756.86;0.163
758.4;0.163
759.95;0.163
761.49;0.164
763.03;0.164
764.58;0.164
766.12;0.164
767.66;0.164
769.21;0.164
770.75;0.163
772.3;0.164
773.84;0.164
775.39;0.163
776.93;0.163
778.48;0.163
780.02;0.163
781.57;0.163
783.12;0.163
784.66;0.164
786.21;0.163
787.76;0.163
789.31;0.164
790.85;0.164
792.4;0.163
793.95;0.163
795.5;0.163
797.05;0.163
798.6;0.163
800.15;0.163
801.7;0.163
803.25;0.163
804.8;0.163
806.35;0.163
807.9;0.163
809.45;0.163
811;0.163
812.56;0.163
814.11;0.163
815.66;0.163
817.21;0.163
818.77;0.163
820.32;0.163
821.88;0.163
823.43;0.163
824.99;0.163
826.54;0.162
828.1;0.162
829.65;0.162
831.21;0.162
832.77;0.162
834.32;0.162
835.88;0.162
837.44;0.162
839;0.162
840.56;0.162
842.11;0.162
843.67;0.162
845.23;0.162
846.79;0.162
848.35;0.161
849.92;0.162
851.48;0.162
853.04;0.162
854.6;0.161
856.16;0.162
857.73;0.161
859.29;0.161
860.85;0.162
862.42;0.161
863.98;0.161
865.55;0.161
867.11;0.161
868.68;0.161
870.25;0.161
871.81;0.161
873.38;0.161
874.95;0.161
876.52;0.161
878.08;0.161
879.65;0.161
881.22;0.161
882.79;0.161
884.36;0.161
885.93;0.160
887.5;0.161
889.08;0.161
890.65;0.160
892.22;0.161
893.79;0.160
895.37;0.160
896.94;0.160
898.51;0.160
900.09;0.160
901.66;0.160
903.24;0.160
904.82;0.160
906.39;0.160
907.97;0.160
909.55;0.159
911.13;0.159
912.7;0.159
914.28;0.159
915.86;0.159
917.44;0.159
919.02;0.159
920.6;0.159
922.19;0.158
923.77;0.159
925.35;0.158
926.93;0.158
928.52;0.158
930.1;0.157
931.68;0.158
933.27;0.157
934.86;0.157
936.44;0.157
938.03;0.156
939.61;0.157
941.2;0.156
942.79;0.156
944.38;0.156
945.97;0.155
947.56;0.154
949.15;0.154
950.74;0.154
952.33;0.154
953.92;0.153
955.51;0.153
957.1;0.153
958.7;0.152
960.29;0.151
961.88;0.151
963.48;0.151
965.07;0.150
966.67;0.150
968.27;0.150
969.86;0.149
971.46;0.150
973.06;0.149
974.66;0.150
976.26;0.148
977.86;0.149
979.46;0.149
981.06;0.148
982.66;0.148
984.26;0.149
985.86;0.149
987.46;0.148
989.07;0.147
990.67;0.147
992.28;0.148
993.88;0.148
995.49;0.149
997.09;0.145
998.7;0.148
;
